100;
3;
5;
100;
150;
5000;
200;
600000;
300;
400000;
1000;
160;
30000;
1000000;
100000;
5;
100000;
Fallklasse;
Verweildauer (gT);
Pflegebedarf (S/T);
OP- Bedarf (S);
Laborbedarf (M);
Röntgenbedarf (gM) Gerät alt;
Röntgenbedarf (gM) Gerät neu;
Fallpauschale (GE);
1;
8;
1,3;
1,2;
2;
20;
15;
2400;
2;
15;
0,8;
2,5;
3;
10;
8;
6300;
3;
14;
2,1;
1;
2;
15;
12;
5700;
4;
10;
1,5;
0,7;
1,5;
0;
0;
3000;
5;
12;
0,4;
1;
0,8;
10;
8;
4500;
